# Source:  “PhotochemCAD 3: Diverse Modules for Photophysical Calculations with Access to Multiple Spectral Databases,”Taniguchi, M.; Du, H.; Lindsey, J. S. Photochem. Photobiol. 2018, 94, 277–289. 
# Source:  “Database of Absorption and Fluorescence Spectra of >300 Common Compounds for Use in PhotochemCAD,” Taniguchi, M.; Lindsey, J. S. Photochem. Photobiol. 2018, 94, 290–327.
# Date Accessed: 20 Jan 2021
Wavelength (nm)	T16 BChl a abs e
300.00	19519
300.20	19625
300.40	19676
300.60	19737
300.80	19783
301.00	19962
301.20	20005
301.40	20110
301.60	20189
301.80	20313
302.00	20313
302.20	20342
302.40	20548
302.60	20555
302.80	20628
303.00	20649
303.20	20623
303.40	20710
303.60	20867
303.80	20775
304.00	20933
304.20	20986
304.40	20887
304.60	21000
304.80	21049
305.00	20993
305.20	21008
305.40	21008
305.60	21134
305.80	21293
306.00	21235
306.20	21189
306.40	21267
306.60	21252
306.80	21247
307.00	21322
307.20	21148
307.40	21226
307.60	21148
307.80	21216
308.00	21044
308.20	21068
308.40	21020
308.60	21117
308.80	21063
309.00	21075
309.20	21056
309.40	20974
309.60	20862
309.80	20935
310.00	20937
310.20	20884
310.40	20836
310.60	20870
310.80	20787
311.00	20802
311.20	20746
311.40	20778
311.60	20729
311.80	20758
312.00	20724
312.20	20678
312.40	20698
312.60	20642
312.80	20666
313.00	20560
313.20	20688
313.40	20586
313.60	20753
313.80	20737
314.00	20824
314.20	20848
314.40	20850
314.60	20870
314.80	20916
315.00	20957
315.20	20923
315.40	21039
315.60	20930
315.80	20957
316.00	21131
316.20	21315
316.40	21228
316.60	21325
316.80	21380
317.00	21400
317.20	21598
317.40	21640
317.60	21770
317.80	21877
318.00	22003
318.20	22133
318.40	22175
318.60	22334
318.80	22402
319.00	22317
319.20	22496
319.40	22664
319.60	22697
319.80	22898
320.00	22971
320.20	23058
320.40	23126
320.60	23288
320.80	23525
321.00	23448
321.20	23871
321.40	23755
321.60	23942
321.80	24092
322.00	24131
322.20	24351
322.40	24310
322.60	24644
322.80	24733
323.00	24784
323.20	25012
323.40	25046
323.60	25242
323.80	25317
324.00	25554
324.20	25636
324.40	25869
324.60	25951
324.80	26181
325.00	26338
325.20	26365
325.40	26605
325.60	26733
325.80	27009
326.00	27004
326.20	27203
326.40	27508
326.60	27595
326.80	27813
327.00	27854
327.20	28072
327.40	28270
327.60	28379
327.80	28619
328.00	28752
328.20	28955
328.40	29069
328.60	29205
328.80	29304
329.00	29643
329.20	29788
329.40	30069
329.60	30163
329.80	30369
330.00	30432
330.20	30587
330.40	30875
330.60	30899
330.80	31187
331.00	31185
331.20	31453
331.40	31565
331.60	31809
331.80	32013
332.00	32325
332.20	32405
332.40	32550
332.60	32729
332.80	32937
333.00	33117
333.20	33218
333.40	33334
333.60	33661
333.80	33819
334.00	33959
334.20	34165
334.40	34504
334.60	34617
334.80	34741
335.00	34910
335.20	35123
335.40	35399
335.60	35554
335.80	35697
336.00	35881
336.20	36133
336.40	36208
336.60	36544
336.80	36765
337.00	36941
337.20	37188
337.40	37440
337.60	37636
337.80	37885
338.00	38067
338.20	38343
338.40	38549
338.60	38856
338.80	39096
339.00	39265
339.20	39418
339.40	39658
339.60	39926
339.80	40200
340.00	40355
340.20	40619
340.40	40890
340.60	41110
340.80	41359
341.00	41655
341.20	41822
341.40	42107
341.60	42393
341.80	42543
342.00	42851
342.20	43008
342.40	43415
342.60	43586
342.80	43787
343.00	44085
343.20	44305
343.40	44625
343.60	44853
343.80	45022
344.00	45523
344.20	45683
344.40	45985
344.60	46109
344.80	46431
345.00	46678
345.20	46947
345.40	47259
345.60	47506
345.80	47738
346.00	48004
346.20	48326
346.40	48610
346.60	48852
346.80	49118
347.00	49406
347.20	49750
347.40	50057
347.60	50321
347.80	50684
348.00	50834
348.20	51224
348.40	51556
348.60	51868
348.80	52132
349.00	52464
349.20	52769
349.40	53011
349.60	53393
349.80	53713
350.00	54105
350.20	54480
350.40	54749
350.60	55117
350.80	55352
351.00	55870
351.20	56254
351.40	56734
351.60	56852
351.80	57380
352.00	57683
352.20	57951
352.40	58283
352.60	58615
352.80	59034
353.00	59498
353.20	59842
353.40	60256
353.60	60605
353.80	60946
354.00	61416
354.20	61825
354.40	62166
354.60	62532
354.80	62929
355.00	63268
355.20	63669
355.40	64049
355.60	64439
355.80	64817
356.00	65168
356.20	65509
356.40	65872
356.60	66267
356.80	66594
357.00	66894
357.20	67209
357.40	67465
357.60	67761
357.80	68092
358.00	68443
358.20	68693
358.40	69034
358.60	69196
358.80	69378
359.00	69583
359.20	69753
359.40	69961
359.60	70072
359.80	70281
360.00	70382
360.20	70460
360.40	70542
360.60	70598
360.80	70632
361.00	70571
361.20	70673
361.40	70624
361.60	70605
361.80	70469
362.00	70356
362.20	70370
362.40	70133
362.60	70041
362.80	69779
363.00	69569
363.20	69366
363.40	69102
363.60	68835
363.80	68555
364.00	68245
364.20	67964
364.40	67649
364.60	67269
364.80	66916
365.00	66545
365.20	66177
365.40	65807
365.60	65427
365.80	65006
366.00	64611
366.20	64185
366.40	63728
366.60	63328
366.80	62820
367.00	62316
367.20	61856
367.40	61411
367.60	60985
367.80	60469
368.00	60029
368.20	59527
368.40	59029
368.60	58595
368.80	58155
369.00	57630
369.20	57191
369.40	56809
369.60	56354
369.80	55845
370.00	55405
370.20	54967
370.40	54541
370.60	54180
370.80	53708
371.00	53393
371.20	53035
371.40	52597
371.60	52326
371.80	51926
372.00	51631
372.20	51292
372.40	50892
372.60	50527
372.80	50246
373.00	49973
373.20	49624
373.40	49370
373.60	49009
373.80	48847
374.00	48527
374.20	48268
374.40	48053
374.60	47791
374.80	47586
375.00	47414
375.20	47206
375.40	47000
375.60	46850
375.80	46685
376.00	46499
376.20	46283
376.40	46240
376.60	46007
376.80	45862
377.00	45770
377.20	45671
377.40	45499
377.60	45484
377.80	45288
378.00	45211
378.20	45109
378.40	44993
378.60	44959
378.80	44886
379.00	44828
379.20	44814
379.40	44695
379.60	44642
379.80	44567
380.00	44540
380.20	44446
380.40	44373
380.60	44315
380.80	44320
381.00	44245
381.20	44211
381.40	44124
381.60	44153
381.80	44155
382.00	44085
382.20	44020
382.40	43996
382.60	43906
382.80	43875
383.00	43901
383.20	43785
383.40	43744
383.60	43737
383.80	43666
384.00	43640
384.20	43560
384.40	43524
384.60	43424
384.80	43366
385.00	43306
385.20	43308
385.40	43219
385.60	43160
385.80	43136
386.00	43032
386.20	43015
386.40	42996
386.60	42928
386.80	42884
387.00	42870
387.20	42875
387.40	42824
387.60	42749
387.80	42737
388.00	42766
388.20	42778
388.40	42722
388.60	42812
388.80	42889
389.00	42838
389.20	42858
389.40	42875
389.60	42928
389.80	42894
390.00	42938
390.20	43008
390.40	43020
390.60	43056
390.80	43175
391.00	43245
391.20	43320
391.40	43388
391.60	43473
391.80	43482
392.00	43574
392.20	43659
392.40	43732
392.60	43809
392.80	43959
393.00	44102
393.20	44131
393.40	44303
393.60	44436
393.80	44477
394.00	44610
394.20	44671
394.40	44656
394.60	44729
394.80	44785
395.00	44920
395.20	44901
395.40	44971
395.60	44954
395.80	45005
396.00	45012
396.20	45005
396.40	45039
396.60	45017
396.80	44937
397.00	44867
397.20	44751
397.40	44654
397.60	44502
397.80	44354
398.00	44218
398.20	44046
398.40	43802
398.60	43596
398.80	43310
399.00	43105
399.20	42761
399.40	42410
399.60	42161
399.80	41800
400.00	41420
400.20	41071
400.40	40606
400.60	40154
400.80	39706
401.00	39234
401.20	38750
401.40	38237
401.60	37716
401.80	37174
402.00	36675
402.20	36106
402.40	35545
402.60	34968
402.80	34421
403.00	33794
403.20	33167
403.40	32598
403.60	31993
403.80	31361
404.00	30829
404.20	30187
404.40	29485
404.60	28878
404.80	28229
405.00	27718
405.20	27069
405.40	26447
405.60	25936
405.80	25280
406.00	24707
406.20	24157
406.40	23569
406.60	23000
406.80	22526
407.00	21913
407.20	21412
407.40	20937
407.60	20487
407.80	20005
408.00	19509
408.20	19086
408.40	18560
408.60	18115
408.80	17667
409.00	17292
409.20	16854
409.40	16461
409.60	16038
409.80	15670
410.00	15307
410.20	15009
410.40	14648
410.60	14271
410.80	13995
411.00	13714
411.20	13423
411.40	13065
411.60	12787
411.80	12547
412.00	12346
412.20	12065
412.40	11792
412.60	11564
412.80	11327
413.00	11133
413.20	10942
413.40	10802
413.60	10538
413.80	10417
414.00	10216
414.20	10054
414.40	9869.6
414.60	9724.3
414.80	9586.4
415.00	9402.4
415.20	9278.9
415.40	9189.3
415.60	9027.2
415.80	8891.6
416.00	8765.7
416.20	8644.7
416.40	8555.1
416.60	8509.1
416.80	8354.2
417.00	8245.2
417.20	8158.1
417.40	8083.0
417.60	8000.7
417.80	7889.4
418.00	7795.0
418.20	7732.0
418.40	7642.5
418.60	7632.8
418.80	7456.1
419.00	7388.3
419.20	7385.9
419.40	7327.8
419.60	7238.2
419.80	7109.9
420.00	7134.1
420.20	7059.0
420.40	7025.2
420.60	6998.5
420.80	6930.7
421.00	6809.7
421.20	6763.7
421.40	6712.9
421.60	6708.0
421.80	6669.3
422.00	6603.9
422.20	6601.5
422.40	6521.6
422.60	6482.9
422.80	6444.2
423.00	6386.1
423.20	6311.0
423.40	6260.2
423.60	6354.6
423.80	6274.7
424.00	6236.0
424.20	6173.0
424.40	6153.7
424.60	6088.3
424.80	6110.1
425.00	6037.5
425.20	6037.5
425.40	5955.2
425.60	5894.6
425.80	5911.6
426.00	5880.1
426.20	5819.6
426.40	5812.3
426.60	5768.8
426.80	5717.9
427.00	5705.8
427.20	5708.2
427.40	5671.9
427.60	5655.0
427.80	5613.8
428.00	5548.5
428.20	5594.5
428.40	5536.4
428.60	5514.6
428.80	5451.6
429.00	5437.1
429.20	5437.1
429.40	5383.9
429.60	5388.7
429.80	5340.3
430.00	5364.5
430.20	5308.8
430.40	5306.4
430.60	5272.5
430.80	5265.2
431.00	5291.9
431.20	5289.4
431.40	5308.8
431.60	5260.4
431.80	5245.9
432.00	5151.5
432.20	5180.5
432.40	5168.4
432.60	5192.6
432.80	5110.3
433.00	5086.1
433.20	5103.0
433.40	5105.5
433.60	5115.1
433.80	5049.8
434.00	5018.3
434.20	5001.4
434.40	4986.8
434.60	4957.8
434.80	4969.9
435.00	4919.1
435.20	4928.7
435.40	4931.2
435.60	4897.3
435.80	4868.2
436.00	4890.0
436.20	4858.5
436.40	4839.2
436.60	4773.8
436.80	4817.4
437.00	4752.0
437.20	4773.8
437.40	4776.2
437.60	4715.7
437.80	4747.2
438.00	4708.5
438.20	4681.8
438.40	4558.4
438.60	4626.1
438.80	4589.8
439.00	4560.8
439.20	4490.6
439.40	4497.8
439.60	4488.2
439.80	4490.6
440.00	4468.8
440.20	4447.0
440.40	4434.9
440.60	4403.4
440.80	4432.5
441.00	4369.5
441.20	4357.4
441.40	4333.2
441.60	4357.4
441.80	4323.5
442.00	4304.2
442.20	4243.7
442.40	4253.3
442.60	4275.1
442.80	4175.9
443.00	4183.1
443.20	4171.0
443.40	4212.2
443.60	4149.2
443.80	4035.5
444.00	4040.3
444.20	4042.7
444.40	4004.0
444.60	3977.4
444.80	3958.0
445.00	3856.3
445.20	3941.1
445.40	3919.3
445.60	3916.9
445.80	3873.3
446.00	3902.3
446.20	3829.7
446.40	3786.1
446.60	3832.1
446.80	3791.0
447.00	3786.1
447.20	3752.2
447.40	3723.2
447.60	3679.6
447.80	3674.8
448.00	3665.1
448.20	3672.4
448.40	3633.6
448.60	3648.1
448.80	3556.2
449.00	3558.6
449.20	3575.5
449.40	3488.4
449.60	3476.3
449.80	3481.1
450.00	3582.8
450.20	3517.4
450.40	3524.7
450.60	3490.8
450.80	3469.0
451.00	3432.7
451.20	3454.5
451.40	3379.4
451.60	3367.3
451.80	3401.2
452.00	3362.5
452.20	3302.0
452.40	3316.5
452.60	3292.3
452.80	3297.1
453.00	3229.3
453.20	3202.7
453.40	3214.8
453.60	3210.0
453.80	3226.9
454.00	3134.9
454.20	3101.0
454.40	3113.1
454.60	3125.3
454.80	3088.9
455.00	3064.7
455.20	3052.6
455.40	3033.3
455.60	3013.9
455.80	3001.8
456.00	2987.3
456.20	2980.0
456.40	2980.0
456.60	2984.8
456.80	2941.3
457.00	2885.6
457.20	2967.9
457.40	2907.4
457.60	2912.2
457.80	2859.0
458.00	2883.2
458.20	2854.1
458.40	2846.9
458.60	2822.7
458.80	2805.7
459.00	2846.9
459.20	2813.0
459.40	2791.2
459.60	2781.5
459.80	2764.6
460.00	2747.6
460.20	2776.7
460.40	2769.4
460.60	2776.7
460.80	2675.0
461.00	2704.0
461.20	2655.6
461.40	2706.5
461.60	2689.5
461.80	2650.8
462.00	2609.6
462.20	2619.3
462.40	2645.9
462.60	2587.8
462.80	2643.5
463.00	2575.7
463.20	2585.4
463.40	2539.4
463.60	2532.2
463.80	2585.4
464.00	2539.4
464.20	2510.4
464.40	2575.7
464.60	2549.1
464.80	2491.0
465.00	2515.2
465.20	2493.4
465.40	2503.1
465.60	2471.6
465.80	2469.2
466.00	2416.0
466.20	2435.3
466.40	2437.7
466.60	2425.6
466.80	2408.7
467.00	2430.5
467.20	2384.5
467.40	2420.8
467.60	2399.0
467.80	2372.4
468.00	2357.9
468.20	2367.5
468.40	2314.3
468.60	2333.6
468.80	2374.8
469.00	2319.1
469.20	2328.8
469.40	2331.2
469.60	2253.8
469.80	2280.4
470.00	2282.8
470.20	2273.1
470.40	2261.0
470.60	2292.5
470.80	2227.1
471.00	2234.4
471.20	2222.3
471.40	2188.4
471.60	2229.6
471.80	2217.5
472.00	2224.7
472.20	2188.4
472.40	2198.1
472.60	2140.0
472.80	2178.7
473.00	2200.5
473.20	2152.1
473.40	2193.2
473.60	2144.8
473.80	2110.9
474.00	2152.1
474.20	2152.1
474.40	2118.2
474.60	2115.8
474.80	2079.5
475.00	2127.9
475.20	2130.3
475.40	2079.5
475.60	2077.0
475.80	2021.4
476.00	2074.6
476.20	2072.2
476.40	2043.2
476.60	2067.4
476.80	2038.3
477.00	2028.6
477.20	2031.0
477.40	2048.0
477.60	2033.5
477.80	2018.9
478.00	2038.3
478.20	2033.5
478.40	2004.4
478.60	2009.3
478.80	1985.1
479.00	1973.0
479.20	1965.7
479.40	1977.8
479.60	2009.3
479.80	1965.7
480.00	1951.2
480.20	2002.0
480.40	2031.0
480.60	1970.5
480.80	1960.8
481.00	1922.1
481.20	1963.3
481.40	1960.8
481.60	1946.3
481.80	1956.0
482.00	1987.5
482.20	1948.7
482.40	1919.7
482.60	1968.1
482.80	1951.2
483.00	1919.7
483.20	1924.5
483.40	1919.7
483.60	1914.9
483.80	1910.0
484.00	1929.4
484.20	1951.2
484.40	1924.5
484.60	1900.3
484.80	1953.6
485.00	1902.7
485.20	1873.7
485.40	1912.4
485.60	1917.3
485.80	1934.2
486.00	1885.8
486.20	1876.1
486.40	1890.6
486.60	1883.4
486.80	1914.9
487.00	1900.3
487.20	1929.4
487.40	1912.4
487.60	1943.9
487.80	1883.4
488.00	1895.5
488.20	1927.0
488.40	1910.0
488.60	1888.2
488.80	1881.0
489.00	1897.9
489.20	1885.8
489.40	1922.1
489.60	1883.4
489.80	1878.5
490.00	1883.4
490.20	1929.4
490.40	1924.5
490.60	1934.2
490.80	1929.4
491.00	1929.4
491.20	1902.7
491.40	1900.3
491.60	1934.2
491.80	1868.9
492.00	1924.5
492.20	1929.4
492.40	1885.8
492.60	1907.6
492.80	1917.3
493.00	1946.3
493.20	1881.0
493.40	1939.1
493.60	1919.7
493.80	1927.0
494.00	1936.6
494.20	1924.5
494.40	1905.2
494.60	1902.7
494.80	1914.9
495.00	1946.3
495.20	1888.2
495.40	1989.9
495.60	1895.5
495.80	1919.7
496.00	2002.0
496.20	1994.7
496.40	1994.7
496.60	1989.9
496.80	1999.6
497.00	2021.4
497.20	2009.3
497.40	2011.7
497.60	2009.3
497.80	1994.7
498.00	1992.3
498.20	2048.0
498.40	2014.1
498.60	2016.5
498.80	2023.8
499.00	2018.9
499.20	1994.7
499.40	1987.5
499.60	1958.4
499.80	1960.8
500.00	1929.4
500.20	1941.5
500.40	1936.6
500.60	1900.3
500.80	1917.3
501.00	1968.1
501.20	1939.1
501.40	1953.6
501.60	1970.5
501.80	1924.5
502.00	1905.2
502.20	1948.7
502.40	1939.1
502.60	1907.6
502.80	1847.1
503.00	1883.4
503.20	1859.2
503.40	1893.1
503.60	1939.1
503.80	1883.4
504.00	1888.2
504.20	1881.0
504.40	1885.8
504.60	1856.8
504.80	1893.1
505.00	1837.4
505.20	1868.9
505.40	1859.2
505.60	1890.6
505.80	1902.7
506.00	1868.9
506.20	1866.4
506.40	1815.6
506.60	1820.4
506.80	1871.3
507.00	1910.0
507.20	1931.8
507.40	1936.6
507.60	1922.1
507.80	1939.1
508.00	1902.7
508.20	1907.6
508.40	1912.4
508.60	1917.3
508.80	1936.6
509.00	1866.4
509.20	1960.8
509.40	1914.9
509.60	1943.9
509.80	1927.0
510.00	1919.7
510.20	1888.2
510.40	1941.5
510.60	1893.1
510.80	1985.1
511.00	1931.8
511.20	1895.5
511.40	1939.1
511.60	1948.7
511.80	1939.1
512.00	1907.6
512.20	1973.0
512.40	1936.6
512.60	1958.4
512.80	1970.5
513.00	1989.9
513.20	1936.6
513.40	1956.0
513.60	1987.5
513.80	2002.0
514.00	1977.8
514.20	2045.6
514.40	2052.8
514.60	1985.1
514.80	2035.9
515.00	2045.6
515.20	2033.5
515.40	2006.8
515.60	2064.9
515.80	2050.4
516.00	2069.8
516.20	2072.2
516.40	2091.6
516.60	2115.8
516.80	2089.1
517.00	2115.8
517.20	2106.1
517.40	2154.5
517.60	2135.1
517.80	2186.0
518.00	2159.4
518.20	2169.0
518.40	2171.5
518.60	2176.3
518.80	2217.5
519.00	2219.9
519.20	2227.1
519.40	2239.2
519.60	2210.2
519.80	2314.3
520.00	2319.1
520.20	2285.2
520.40	2324.0
520.60	2292.5
520.80	2362.7
521.00	2304.6
521.20	2408.7
521.40	2408.7
521.60	2435.3
521.80	2459.5
522.00	2491.0
522.20	2478.9
522.40	2510.4
522.60	2563.6
522.80	2517.6
523.00	2587.8
523.20	2566.0
523.40	2621.7
523.60	2590.3
523.80	2624.1
524.00	2653.2
524.20	2672.6
524.40	2689.5
524.60	2747.6
524.80	2771.8
525.00	2759.7
525.20	2793.6
525.40	2837.2
525.60	2849.3
525.80	2880.7
526.00	2897.7
526.20	2907.4
526.40	2989.7
526.60	2975.2
526.80	3011.5
527.00	3009.1
527.20	3067.2
527.40	3064.7
527.60	3096.2
527.80	3149.5
528.00	3166.4
528.20	3188.2
528.40	3224.5
528.60	3212.4
528.80	3263.2
529.00	3280.2
529.20	3309.2
529.40	3323.8
529.60	3369.8
529.80	3447.2
530.00	3444.8
530.20	3430.3
530.40	3473.8
530.60	3541.6
530.80	3519.8
531.00	3609.4
531.20	3611.8
531.40	3631.2
531.60	3665.1
531.80	3686.9
532.00	3742.6
532.20	3699.0
532.40	3764.3
532.60	3803.1
532.80	3807.9
533.00	3839.4
533.20	3885.4
533.40	3904.7
533.60	3916.9
533.80	3926.5
534.00	3982.2
534.20	3953.2
534.40	4013.7
534.60	4076.6
534.80	4066.9
535.00	4088.7
535.20	4115.4
535.40	4144.4
535.60	4185.6
535.80	4224.3
536.00	4231.6
536.20	4263.0
536.40	4289.7
536.60	4277.5
536.80	4318.7
537.00	4287.2
537.20	4333.2
537.40	4364.7
537.60	4386.5
537.80	4369.5
538.00	4388.9
538.20	4439.7
538.40	4488.2
538.60	4512.4
538.80	4514.8
539.00	4543.8
539.20	4601.9
539.40	4546.3
539.60	4563.2
539.80	4618.9
540.00	4604.4
540.20	4640.7
540.40	4614.0
540.60	4689.1
540.80	4664.9
541.00	4684.2
541.20	4756.9
541.40	4735.1
541.60	4764.1
541.80	4776.2
542.00	4766.6
542.20	4834.3
542.40	4812.5
542.60	4841.6
542.80	4834.3
543.00	4795.6
543.20	4882.7
543.40	4904.5
543.60	4890.0
543.80	4931.2
544.00	4936.0
544.20	4943.3
544.40	5018.3
544.60	5008.6
544.80	4986.8
545.00	5023.2
545.20	5047.4
545.40	5061.9
545.60	5057.0
545.80	5098.2
546.00	5100.6
546.20	5120.0
546.40	5100.6
546.60	5166.0
546.80	5153.9
547.00	5214.4
547.20	5204.7
547.40	5248.3
547.60	5236.2
547.80	5265.2
548.00	5291.9
548.20	5340.3
548.40	5333.0
548.60	5347.5
548.80	5371.7
549.00	5451.6
549.20	5434.7
549.40	5485.5
549.60	5502.5
549.80	5509.7
550.00	5582.4
550.20	5609.0
550.40	5647.7
550.60	5630.8
550.80	5705.8
551.00	5754.2
551.20	5795.4
551.40	5807.5
551.60	5868.0
551.80	5906.7
552.00	6013.3
552.20	5996.3
552.40	6071.4
552.60	6117.4
552.80	6158.5
553.00	6206.9
553.20	6226.3
553.40	6301.3
553.60	6357.0
553.80	6473.2
554.00	6499.8
554.20	6574.9
554.40	6649.9
554.60	6732.2
554.80	6739.5
555.00	6858.1
555.20	6904.1
555.40	7017.9
555.60	7059.0
555.80	7189.8
556.00	7243.0
556.20	7339.9
556.40	7458.5
556.60	7504.5
556.80	7611.0
557.00	7681.2
557.20	7753.8
557.40	7874.9
557.60	8005.6
557.80	8073.4
558.00	8141.1
558.20	8281.5
558.40	8385.6
558.60	8555.1
558.80	8661.6
559.00	8787.5
559.20	8906.1
559.40	9000.5
559.60	9126.4
559.80	9262.0
560.00	9375.7
560.20	9484.7
560.40	9651.7
560.60	9818.8
560.80	9939.8
561.00	10090
561.20	10221
561.40	10330
561.60	10482
561.80	10649
562.00	10789
562.20	10920
562.40	11138
562.60	11281
562.80	11375
563.00	11579
563.20	11688
563.40	11872
563.60	12056
563.80	12211
564.00	12404
564.20	12564
564.40	12784
564.60	12905
564.80	13097
565.00	13300
565.20	13462
565.40	13624
565.60	13811
565.80	13997
566.00	14200
566.20	14363
566.40	14559
566.60	14670
566.80	14919
567.00	15106
567.20	15285
567.40	15430
567.60	15638
567.80	15808
568.00	16021
568.20	16183
568.40	16384
568.60	16566
568.80	16771
569.00	16943
569.20	17130
569.40	17314
569.60	17464
569.80	17628
570.00	17853
570.20	18086
570.40	18292
570.60	18488
570.80	18657
571.00	18827
571.20	18996
571.40	19163
571.60	19391
571.80	19507
572.00	19625
572.20	19897
572.40	20005
572.60	20194
572.80	20310
573.00	20526
573.20	20662
573.40	20787
573.60	20942
573.80	21054
574.00	21240
574.20	21373
574.40	21521
574.60	21623
574.80	21811
575.00	21877
575.20	22068
575.40	22160
575.60	22254
575.80	22337
576.00	22487
576.20	22550
576.40	22700
576.60	22702
576.80	22852
577.00	22910
577.20	23024
577.40	23087
577.60	23145
577.80	23201
578.00	23317
578.20	23349
578.40	23351
578.60	23361
578.80	23445
579.00	23516
579.20	23511
579.40	23533
579.60	23533
579.80	23562
580.00	23571
580.20	23596
580.40	23537
580.60	23564
580.80	23533
581.00	23489
581.20	23504
581.40	23458
581.60	23382
581.80	23336
582.00	23329
582.20	23259
582.40	23189
582.60	23094
582.80	23063
583.00	22959
583.20	22893
583.40	22794
583.60	22705
583.80	22567
584.00	22482
584.20	22375
584.40	22266
584.60	22143
584.80	21988
585.00	21821
585.20	21741
585.40	21606
585.60	21429
585.80	21308
586.00	21138
586.20	20957
586.40	20833
586.60	20632
586.80	20405
587.00	20248
587.20	20064
587.40	19894
587.60	19664
587.80	19444
588.00	19320
588.20	19093
588.40	18885
588.60	18643
588.80	18483
589.00	18304
589.20	18008
589.40	17793
589.60	17563
589.80	17379
590.00	17156
590.20	16953
590.40	16752
590.60	16466
590.80	16260
591.00	16055
591.20	15796
591.40	15580
591.60	15314
591.80	15166
592.00	14907
592.20	14663
592.40	14452
592.60	14227
592.80	14055
593.00	13789
593.20	13561
593.40	13368
593.60	13143
593.80	12886
594.00	12687
594.20	12489
594.40	12266
594.60	12097
594.80	11886
595.00	11722
595.20	11496
595.40	11245
595.60	11073
595.80	10908
596.00	10712
596.20	10538
596.40	10339
596.60	10148
596.80	9947.1
597.00	9792.1
597.20	9613.0
597.40	9450.8
597.60	9237.8
597.80	9102.2
598.00	8937.6
598.20	8789.9
598.40	8651.9
598.60	8470.4
598.80	8322.7
599.00	8216.2
599.20	8015.3
599.40	7867.6
599.60	7751.4
599.80	7581.9
600.00	7446.4
600.20	7301.1
600.40	7158.3
600.60	7076.0
600.80	6935.6
601.00	6792.8
601.20	6691.1
601.40	6538.6
601.60	6526.5
601.80	6361.9
602.00	6274.7
602.20	6098.0
602.40	5996.3
602.60	5916.4
602.80	5826.9
603.00	5725.2
603.20	5623.5
603.40	5560.6
603.60	5451.6
603.80	5383.9
604.00	5284.6
604.20	5149.0
604.40	5071.6
604.60	4998.9
604.80	4943.3
605.00	4839.2
605.20	4766.6
605.40	4713.3
605.60	4633.4
605.80	4606.8
606.00	4497.8
606.20	4485.7
606.40	4405.9
606.60	4275.1
606.80	4267.9
607.00	4178.3
607.20	4110.5
607.40	4059.7
607.60	4011.3
607.80	3991.9
608.00	3945.9
608.20	3824.9
608.40	3817.6
608.60	3781.3
608.80	3728.0
609.00	3686.9
609.20	3611.8
609.40	3602.1
609.60	3551.3
609.80	3505.3
610.00	3502.9
610.20	3435.1
610.40	3389.1
610.60	3396.4
610.80	3333.4
611.00	3292.3
611.20	3265.7
611.40	3239.0
611.60	3224.5
611.80	3180.9
612.00	3127.7
612.20	3105.9
612.40	3110.7
612.60	3055.0
612.80	3004.2
613.00	3013.9
613.20	3030.8
613.40	2960.6
613.60	2919.5
613.80	2929.2
614.00	2892.9
614.20	2861.4
614.40	2868.6
614.60	2859.0
614.80	2834.8
615.00	2737.9
615.20	2813.0
615.40	2796.0
615.60	2764.6
615.80	2728.2
616.00	2723.4
616.20	2713.7
616.40	2721.0
616.60	2699.2
616.80	2667.7
617.00	2670.1
617.20	2638.7
617.40	2636.2
617.60	2660.5
617.80	2599.9
618.00	2612.0
618.20	2614.5
618.40	2585.4
618.60	2599.9
618.80	2558.8
619.00	2583.0
619.20	2580.6
619.40	2529.7
619.60	2517.6
619.80	2549.1
620.00	2549.1
620.20	2515.2
620.40	2515.2
620.60	2524.9
620.80	2544.3
621.00	2476.5
621.20	2440.2
621.40	2466.8
621.60	2476.5
621.80	2430.5
622.00	2483.7
622.20	2452.3
622.40	2442.6
622.60	2457.1
622.80	2452.3
623.00	2476.5
623.20	2447.4
623.40	2498.3
623.60	2432.9
623.80	2437.7
624.00	2495.8
624.20	2454.7
624.40	2471.6
624.60	2449.8
624.80	2432.9
625.00	2435.3
625.20	2457.1
625.40	2437.7
625.60	2466.8
625.80	2445.0
626.00	2454.7
626.20	2500.7
626.40	2466.8
626.60	2510.4
626.80	2488.6
627.00	2360.3
627.20	2478.9
627.40	2527.3
627.60	2464.4
627.80	2457.1
628.00	2486.2
628.20	2503.1
628.40	2481.3
628.60	2510.4
628.80	2539.4
629.00	2498.3
629.20	2486.2
629.40	2517.6
629.60	2507.9
629.80	2546.7
630.00	2563.6
630.20	2524.9
630.40	2529.7
630.60	2583.0
630.80	2570.9
631.00	2549.1
631.20	2597.5
631.40	2556.4
631.60	2590.3
631.80	2602.4
632.00	2612.0
632.20	2590.3
632.40	2609.6
632.60	2641.1
632.80	2614.5
633.00	2633.8
633.20	2665.3
633.40	2670.1
633.60	2672.6
633.80	2672.6
634.00	2675.0
634.20	2655.6
634.40	2677.4
634.60	2682.2
634.80	2699.2
635.00	2665.3
635.20	2691.9
635.40	2750.0
635.60	2764.6
635.80	2788.8
636.00	2764.6
636.20	2771.8
636.40	2762.1
636.60	2771.8
636.80	2771.8
637.00	2774.2
637.20	2786.3
637.40	2781.5
637.60	2791.2
637.80	2844.4
638.00	2849.3
638.20	2829.9
638.40	2854.1
638.60	2856.5
638.80	2851.7
639.00	2859.0
639.20	2846.9
639.40	2854.1
639.60	2897.7
639.80	2912.2
640.00	2863.8
640.20	2912.2
640.40	2914.6
640.60	2953.4
640.80	2917.1
641.00	2946.1
641.20	2941.3
641.40	2943.7
641.60	2965.5
641.80	2999.4
642.00	2967.9
642.20	2989.7
642.40	3030.8
642.60	3018.7
642.80	2994.5
643.00	3040.5
643.20	3033.3
643.40	3033.3
643.60	3030.8
643.80	3021.2
644.00	3045.4
644.20	3098.6
644.40	3113.1
644.60	3064.7
644.80	3069.6
645.00	3110.7
645.20	3103.5
645.40	3120.4
645.60	3118.0
645.80	3147.0
646.00	3122.8
646.20	3120.4
646.40	3147.0
646.60	3173.7
646.80	3200.3
647.00	3205.1
647.20	3168.8
647.40	3159.1
647.60	3219.7
647.80	3229.3
648.00	3190.6
648.20	3164.0
648.40	3248.7
648.60	3217.2
648.80	3219.7
649.00	3214.8
649.20	3207.6
649.40	3224.5
649.60	3248.7
649.80	3306.8
650.00	3248.7
650.20	3222.1
650.40	3251.1
650.60	3217.2
650.80	3282.6
651.00	3265.7
651.20	3304.4
651.40	3292.3
651.60	3311.7
651.80	3275.3
652.00	3381.9
652.20	3280.2
652.40	3350.4
652.60	3357.6
652.80	3318.9
653.00	3304.4
653.20	3381.9
653.40	3287.4
653.60	3352.8
653.80	3379.4
654.00	3362.5
654.20	3369.8
654.40	3350.4
654.60	3386.7
654.80	3326.2
655.00	3386.7
655.20	3391.5
655.40	3398.8
655.60	3437.5
655.80	3420.6
656.00	3444.8
656.20	3408.5
656.40	3420.6
656.60	3449.6
656.80	3418.2
657.00	3425.4
657.20	3483.5
657.40	3423.0
657.60	3495.6
657.80	3459.3
658.00	3464.2
658.20	3435.1
658.40	3505.3
658.60	3522.3
658.80	3536.8
659.00	3519.8
659.20	3529.5
659.40	3534.4
659.60	3515.0
659.80	3536.8
660.00	3505.3
660.20	3548.9
660.40	3592.5
660.60	3580.4
660.80	3563.4
661.00	3636.0
661.20	3490.8
661.40	3558.6
661.60	3597.3
661.80	3577.9
662.00	3616.7
662.20	3585.2
662.40	3582.8
662.60	3619.1
662.80	3568.3
663.00	3607.0
663.20	3597.3
663.40	3565.8
663.60	3607.0
663.80	3594.9
664.00	3686.9
664.20	3643.3
664.40	3682.0
664.60	3631.2
664.80	3662.7
665.00	3679.6
665.20	3715.9
665.40	3715.9
665.60	3829.7
665.80	3805.5
666.00	3807.9
666.20	3861.2
666.40	3868.4
666.60	3883.0
666.80	3914.4
667.00	3885.4
667.20	3955.6
667.40	3899.9
667.60	3948.3
667.80	3948.3
668.00	3948.3
668.20	3982.2
668.40	3991.9
668.60	4059.7
668.80	4125.0
669.00	4062.1
669.20	4081.5
669.40	4105.7
669.60	4120.2
669.80	4122.6
670.00	4134.7
670.20	4197.7
670.40	4173.5
670.60	4112.9
670.80	4219.5
671.00	4231.6
671.20	4197.7
671.40	4294.5
671.60	4282.4
671.80	4272.7
672.00	4289.7
672.20	4309.0
672.40	4362.3
672.60	4359.9
672.80	4449.4
673.00	4427.6
673.20	4466.4
673.40	4485.7
673.60	4519.6
673.80	4512.4
674.00	4507.5
674.20	4558.4
674.40	4563.2
674.60	4597.1
674.80	4638.2
675.00	4647.9
675.20	4698.8
675.40	4732.7
675.60	4727.8
675.80	4783.5
676.00	4815.0
676.20	4815.0
676.40	4897.3
676.60	4870.6
676.80	4960.2
677.00	4974.7
677.20	4969.9
677.40	4998.9
677.60	5078.8
677.80	5054.6
678.00	5100.6
678.20	5100.6
678.40	5182.9
678.60	5185.3
678.80	5243.4
679.00	5291.9
679.20	5253.1
679.40	5318.5
679.60	5359.6
679.80	5383.9
680.00	5415.3
680.20	5420.2
680.40	5458.9
680.60	5480.7
680.80	5550.9
681.00	5609.0
681.20	5604.1
681.40	5630.8
681.60	5667.1
681.80	5696.1
682.00	5771.2
682.20	5785.7
682.40	5848.6
682.60	5901.9
682.80	5889.8
683.00	5969.7
683.20	5972.1
683.40	6015.7
683.60	6052.0
683.80	6117.4
684.00	6146.4
684.20	6158.5
684.40	6192.4
684.60	6243.2
684.80	6286.8
685.00	6315.9
685.20	6357.0
685.40	6400.6
685.60	6478.1
685.80	6487.7
686.00	6555.5
686.20	6565.2
686.40	6676.6
686.60	6683.8
686.80	6715.3
687.00	6824.2
687.20	6780.7
687.40	6867.8
687.60	6875.1
687.80	6916.2
688.00	6938.0
688.20	7025.2
688.40	7097.8
688.60	7080.8
688.80	7172.8
689.00	7255.1
689.20	7296.3
689.40	7310.8
689.60	7337.4
689.80	7385.9
690.00	7414.9
690.20	7511.7
690.40	7552.9
690.60	7579.5
690.80	7632.8
691.00	7695.7
691.20	7698.1
691.40	7780.4
691.60	7850.6
691.80	7879.7
692.00	7933.0
692.20	7896.6
692.40	7954.7
692.60	7949.9
692.80	8058.8
693.00	8097.6
693.20	8109.7
693.40	8223.5
693.60	8269.4
693.80	8254.9
694.00	8349.3
694.20	8414.7
694.40	8451.0
694.60	8477.6
694.80	8535.7
695.00	8545.4
695.20	8649.5
695.40	8683.4
695.60	8731.8
695.80	8785.1
696.00	8879.5
696.20	8969.1
696.40	8961.8
696.60	9036.8
696.80	9056.2
697.00	9131.2
697.20	9220.8
697.40	9201.5
697.60	9259.6
697.80	9344.3
698.00	9341.9
698.20	9392.7
698.40	9477.4
698.60	9542.8
698.80	9559.7
699.00	9610.6
699.20	9654.1
699.40	9666.2
699.60	9748.6
699.80	9784.9
700.00	9833.3
700.20	9847.8
700.40	9932.5
700.60	9944.6
700.80	10027
701.00	10087
701.20	10097
701.40	10204
701.60	10211
701.80	10201
702.00	10284
702.20	10313
702.40	10269
702.60	10397
702.80	10414
703.00	10468
703.20	10489
703.40	10484
703.60	10550
703.80	10598
704.00	10652
704.20	10698
704.40	10707
704.60	10722
704.80	10816
705.00	10768
705.20	10843
705.40	10855
705.60	10925
705.80	10908
706.00	10957
706.20	11000
706.40	10988
706.60	11056
706.80	11124
707.00	11124
707.20	11179
707.40	11104
707.60	11167
707.80	11153
708.00	11179
708.20	11184
708.40	11225
708.60	11291
708.80	11298
709.00	11324
709.20	11366
709.40	11358
709.60	11441
709.80	11385
710.00	11448
710.20	11504
710.40	11489
710.60	11511
710.80	11547
711.00	11521
711.20	11574
711.40	11557
711.60	11564
711.80	11605
712.00	11630
712.20	11637
712.40	11608
712.60	11702
712.80	11683
713.00	11680
713.20	11700
713.40	11692
713.60	11700
713.80	11692
714.00	11659
714.20	11717
714.40	11717
714.60	11736
714.80	11770
715.00	11719
715.20	11789
715.40	11751
715.60	11787
715.80	11751
716.00	11758
716.20	11765
716.40	11753
716.60	11688
716.80	11748
717.00	11748
717.20	11722
717.40	11714
717.60	11746
717.80	11743
718.00	11792
718.20	11751
718.40	11748
718.60	11830
718.80	11816
719.00	11889
719.20	11867
719.40	11867
719.60	11879
719.80	11874
720.00	11908
720.20	11828
720.40	11850
720.60	11855
720.80	11845
721.00	11843
721.20	11913
721.40	11862
721.60	11855
721.80	11893
722.00	11910
722.20	11876
722.40	11918
722.60	11889
722.80	11905
723.00	11951
723.20	11935
723.40	11944
723.60	11913
723.80	11961
724.00	11966
724.20	11959
724.40	11993
724.60	11966
724.80	12014
725.00	12000
725.20	12019
725.40	12029
725.60	12060
725.80	12126
726.00	12070
726.20	12102
726.40	12203
726.60	12174
726.80	12106
727.00	12087
727.20	12099
727.40	12148
727.60	12172
727.80	12198
728.00	12194
728.20	12261
728.40	12254
728.60	12295
728.80	12344
729.00	12358
729.20	12428
729.40	12428
729.60	12474
729.80	12612
730.00	12627
730.20	12622
730.40	12707
730.60	12697
730.80	12779
731.00	12779
731.20	12830
731.40	12867
731.60	12946
731.80	12968
732.00	13046
732.20	13070
732.40	13205
732.60	13191
732.80	13218
733.00	13307
733.20	13351
733.40	13382
733.60	13448
733.80	13481
734.00	13615
734.20	13661
734.40	13711
734.60	13769
734.80	13866
735.00	13983
735.20	14053
735.40	14116
735.60	14246
735.80	14336
736.00	14389
736.20	14396
736.40	14559
736.60	14607
736.80	14702
737.00	14825
737.20	14905
737.40	15026
737.60	15065
737.80	15220
738.00	15307
738.20	15367
738.40	15500
738.60	15469
738.80	15643
739.00	15774
739.20	15873
739.40	15997
739.60	16115
739.80	16219
740.00	16316
740.20	16432
740.40	16609
740.60	16694
740.80	16841
741.00	16955
741.20	17088
741.40	17200
741.60	17381
741.80	17466
742.00	17633
742.20	17812
742.40	17943
742.60	18100
742.80	18229
743.00	18420
743.20	18652
743.40	18793
743.60	18952
743.80	19158
744.00	19284
744.20	19470
744.40	19599
744.60	19807
744.80	20010
745.00	20175
745.20	20361
745.40	20543
745.60	20763
745.80	20974
746.00	21189
746.20	21325
746.40	21550
746.60	21777
746.80	21995
747.00	22221
747.20	22472
747.40	22654
747.60	22886
747.80	23140
748.00	23361
748.20	23593
748.40	23884
748.60	24133
748.80	24394
749.00	24581
749.20	24840
749.40	25058
749.60	25343
749.80	25585
750.00	25847
750.20	26186
750.40	26423
750.60	26784
750.80	27069
751.00	27379
751.20	27754
751.40	28013
751.60	28326
751.80	28640
752.00	28958
752.20	29231
752.40	29623
752.60	29936
752.80	30260
753.00	30647
753.20	30962
753.40	31337
753.60	31732
753.80	32117
754.00	32458
754.20	32836
754.40	33240
754.60	33603
754.80	33959
755.00	34402
755.20	34746
755.40	35177
755.60	35559
755.80	35980
756.00	36416
756.20	36874
756.40	37239
756.60	37702
756.80	38207
757.00	38646
757.20	39120
757.40	39549
757.60	39992
757.80	40476
758.00	40873
758.20	41439
758.40	41897
758.60	42398
758.80	42870
759.00	43402
759.20	43850
759.40	44359
759.60	44923
759.80	45412
760.00	45935
760.20	46409
760.40	46956
760.60	47433
760.80	48014
761.00	48547
761.20	49099
761.40	49592
761.60	50171
761.80	50723
762.00	51270
762.20	51805
762.40	52454
762.60	52921
762.80	53497
763.00	54090
763.20	54681
763.40	55264
763.60	55877
763.80	56422
764.00	56935
764.20	57557
764.40	58196
764.60	58746
764.80	59322
765.00	59949
765.20	60527
765.40	61120
765.60	61810
765.80	62357
766.00	62958
766.20	63507
766.40	64132
766.60	64744
766.80	65376
767.00	65964
767.20	66562
767.40	67155
767.60	67734
767.80	68317
768.00	68927
768.20	69554
768.40	70123
768.60	70721
768.80	71346
769.00	71898
769.20	72462
769.40	73023
769.60	73607
769.80	74166
770.00	74720
770.20	75345
770.40	75836
770.60	76362
770.80	76972
771.00	77499
771.20	78032
771.40	78579
771.60	79114
771.80	79627
772.00	80141
772.20	80634
772.40	81080
772.60	81617
772.80	82101
773.00	82578
773.20	83029
773.40	83505
773.60	83961
773.80	84401
774.00	84849
774.20	85285
774.40	85677
774.60	86096
774.80	86483
775.00	86936
775.20	87221
775.40	87621
775.60	87955
775.80	88303
776.00	88584
776.20	88921
776.40	89252
776.60	89511
776.80	89775
777.00	90020
777.20	90243
777.40	90424
777.60	90671
777.80	90877
778.00	91092
778.20	91247
778.40	91392
778.60	91509
778.80	91610
779.00	91731
779.20	91884
779.40	91959
779.60	91939
779.80	91985
780.00	91981
780.20	92000
780.40	91959
780.60	91923
780.80	91831
781.00	91736
781.20	91697
781.40	91513
781.60	91463
781.80	91269
782.00	91085
782.20	90899
782.40	90698
782.60	90410
782.80	90153
783.00	89913
783.20	89640
783.40	89303
783.60	88986
783.80	88608
784.00	88228
784.20	87839
784.40	87384
784.60	86972
784.80	86553
785.00	86052
785.20	85578
785.40	85057
785.60	84551
785.80	83982
786.00	83384
786.20	82799
786.40	82205
786.60	81532
786.80	81007
787.00	80363
787.20	79644
787.40	79008
787.60	78247
787.80	77541
788.00	76744
788.20	76049
788.40	75246
788.60	74464
788.80	73643
789.00	72835
789.20	72096
789.40	71217
789.60	70365
789.80	69506
790.00	68651
790.20	67821
790.40	66913
790.60	65986
790.80	65061
791.00	64192
791.20	63280
791.40	62333
791.60	61382
791.80	60493
792.00	59605
792.20	58620
792.40	57765
792.60	56770
792.80	55828
793.00	54904
793.20	53950
793.40	53069
793.60	52108
793.80	51144
794.00	50285
794.20	49312
794.40	48384
794.60	47440
794.80	46504
795.00	45610
795.20	44661
795.40	43766
795.60	42923
795.80	41979
796.00	41030
796.20	40231
796.40	39326
796.60	38450
796.80	37639
797.00	36808
797.20	35983
797.40	35220
797.60	34368
797.80	33569
798.00	32770
798.20	32044
798.40	31233
798.60	30519
798.80	29703
799.00	29013
799.20	28272
799.40	27619
799.60	26907
799.80	26261
800.00	25522
800.20	24934
800.40	24273
800.60	23654
800.80	23019
801.00	22421
801.20	21826
801.40	21293
801.60	20741
801.80	20141
802.00	19623
802.20	19061
802.40	18563
802.60	18057
802.80	17606
803.00	17125
803.20	16604
803.40	16231
803.60	15755
803.80	15343
804.00	14939
804.20	14520
804.40	14118
804.60	13716
804.80	13322
805.00	12985
805.20	12685
805.40	12266
805.60	11985
805.80	11651
806.00	11317
806.20	11019
806.40	10714
806.60	10434
806.80	10119
807.00	9847.8
807.20	9591.2
807.40	9383.0
807.60	9097.4
807.80	8860.1
808.00	8671.3
808.20	8407.4
808.40	8189.6
808.60	7971.7
808.80	7736.9
809.00	7545.6
809.20	7339.9
809.40	7097.8
809.60	6976.7
809.80	6787.9
810.00	6613.6
810.20	6439.3
810.40	6294.1
810.60	6158.5
810.80	6020.5
811.00	5877.7
811.20	5739.7
811.40	5538.8
811.60	5442.0
811.80	5301.5
812.00	5146.6
812.20	5095.8
812.40	4894.9
812.60	4824.6
812.80	4737.5
813.00	4614.0
813.20	4495.4
813.40	4401.0
813.60	4243.7
813.80	4173.5
814.00	4110.5
814.20	4033.0
814.40	3892.6
814.60	3834.5
814.80	3788.5
815.00	3636.0
815.20	3650.6
815.40	3495.6
815.60	3495.6
815.80	3381.9
816.00	3314.1
816.20	3289.9
816.40	3149.5
816.60	3115.6
816.80	3088.9
817.00	3006.6
817.20	2946.1
817.40	2929.2
817.60	2856.5
817.80	2810.5
818.00	2759.7
818.20	2691.9
818.40	2658.0
818.60	2575.7
818.80	2558.8
819.00	2495.8
819.20	2515.2
819.40	2403.9
819.60	2423.2
819.80	2355.4
820.00	2348.2
820.20	2282.8
820.40	2229.6
820.60	2224.7
820.80	2195.7
821.00	2123.0
821.20	2089.1
821.40	2113.4
821.60	2033.5
821.80	2031.0
822.00	1994.7
822.20	1883.4
822.40	1910.0
822.60	1856.8
822.80	1859.2
823.00	1762.3
823.20	1822.9
823.40	1755.1
823.60	1716.3
823.80	1697.0
824.00	1675.2
824.20	1653.4
824.40	1634.0
824.60	1626.8
824.80	1585.6
825.00	1585.6
825.20	1513.0
825.40	1508.2
825.60	1491.2
825.80	1500.9
826.00	1440.4
826.20	1459.7
826.40	1428.3
826.60	1471.8
826.80	1319.3
827.00	1358.1
827.20	1399.2
827.40	1290.3
827.60	1312.1
827.80	1302.4
828.00	1254.0
828.20	1263.7
828.40	1278.2
828.60	1263.7
828.80	1222.5
829.00	1159.6
829.20	1193.5
829.40	1203.1
829.60	1147.5
829.80	1205.6
830.00	1108.7
830.20	1152.3
830.40	1082.1
830.60	1103.9
830.80	1089.4
831.00	1043.4
831.20	1016.7
831.40	1002.2
831.60	987.69
831.80	1021.6
832.00	1079.7
832.20	1050.6
832.40	992.53
832.60	1011.9
832.80	936.85
833.00	1007.1
833.20	951.37
833.40	888.43
833.60	958.64
833.80	815.81
834.00	869.07
834.20	948.95
834.40	922.32
834.60	898.12
834.80	825.49
835.00	869.07
835.20	832.75
835.40	835.18
835.60	796.44
835.80	825.49
836.00	815.81
836.20	784.34
836.40	798.86
836.60	791.60
836.80	774.66
837.00	706.87
837.20	687.51
837.40	772.23
837.60	738.34
837.80	813.39
838.00	704.45
838.20	755.29
838.40	709.29
838.60	723.82
838.80	687.51
839.00	757.71
839.20	714.14
839.40	728.66
839.60	716.56
839.80	610.04
840.00	646.35
840.20	643.93
840.40	641.51
840.60	602.78
840.80	617.30
841.00	636.67
841.20	653.62
841.40	602.78
841.60	605.20
841.80	687.51
842.00	668.14
842.20	522.89
842.40	624.57
842.60	593.10
842.80	532.58
843.00	626.99
843.20	619.72
843.40	564.05
843.60	600.36
843.80	503.53
844.00	532.58
844.20	503.53
844.40	501.11
844.60	479.32
844.80	532.58
845.00	445.43
845.20	532.58
845.40	513.21
845.60	459.95
845.80	505.95
846.00	510.79
846.20	426.06
846.40	556.78
846.60	457.53
846.80	440.59
847.00	455.11
847.20	401.85
847.40	503.53
847.60	496.26
847.80	489.00
848.00	450.27
848.20	491.42
848.40	498.68
848.60	440.59
848.80	445.43
849.00	484.16
849.20	435.74
849.40	498.68
849.60	428.48
849.80	452.69
850.00	464.79
850.20	457.53
850.40	491.42
850.60	423.64
850.80	375.22
851.00	394.59
851.20	416.38
851.40	445.43
851.60	406.69
851.80	430.90
852.00	360.70
852.20	428.48
852.40	399.43
852.60	409.11
852.80	365.54
853.00	363.12
853.20	360.70
853.40	365.54
853.60	406.69
853.80	401.85
854.00	336.49
854.20	302.60
854.40	305.02
854.60	278.39
854.80	331.65
855.00	397.01
855.20	348.59
855.40	324.39
855.60	259.03
855.80	365.54
856.00	275.97
856.20	314.70
856.40	292.92
856.60	321.97
856.80	312.28
857.00	353.44
857.20	256.60
857.40	292.92
857.60	324.39
857.80	380.07
858.00	251.76
858.20	380.07
858.40	285.65
858.60	280.81
858.80	285.65
859.00	290.50
859.20	360.70
859.40	297.76
859.60	302.60
859.80	363.12
860.00	372.80
860.20	297.76
860.40	331.65
860.60	288.07
860.80	305.02
861.00	372.80
861.20	413.96
861.40	290.50
861.60	271.13
861.80	353.44
862.00	288.07
862.20	278.39
862.40	319.55
862.60	234.82
862.80	283.23
863.00	329.23
863.20	326.81
863.40	341.33
863.60	375.22
863.80	249.34
864.00	324.39
864.20	246.92
864.40	392.17
864.60	329.23
864.80	326.81
865.00	256.60
865.20	365.54
865.40	389.75
865.60	399.43
865.80	384.91
866.00	295.34
866.20	399.43
866.40	377.64
866.60	351.02
866.80	341.33
867.00	462.37
867.20	399.43
867.40	416.38
867.60	484.16
867.80	459.95
868.00	421.22
868.20	433.32
868.40	389.75
868.60	450.27
868.80	452.69
869.00	467.21
869.20	520.47
869.40	411.54
869.60	455.11
869.80	484.16
870.00	476.90
870.20	447.85
870.40	382.49
870.60	452.69
870.80	491.42
871.00	522.89
871.20	496.26
871.40	406.69
871.60	435.74
871.80	382.49
872.00	457.53
872.20	440.59
872.40	428.48
872.60	464.79
872.80	493.84
873.00	532.58
873.20	464.79
873.40	321.97
873.60	510.79
873.80	334.07
874.00	539.84
874.20	365.54
874.40	459.95
874.60	387.33
874.80	406.69
875.00	433.32
875.20	445.43
875.40	423.64
875.60	428.48
875.80	459.95
876.00	443.01
876.20	321.97
876.40	443.01
876.60	397.01
876.80	464.79
877.00	392.17
877.20	370.38
877.40	329.23
877.60	341.33
877.80	406.69
878.00	406.69
878.20	428.48
878.40	331.65
878.60	334.07
878.80	246.92
879.00	297.76
879.20	225.13
879.40	121.04
879.60	196.08
879.80	227.56
880.00	133.14
880.20	251.76
880.40	162.19
880.60	319.55
880.80	167.04
881.00	242.08
881.20	169.46
881.40	266.29
881.60	58.099
881.80	84.728
882.00	191.24
882.20	268.71
882.40	181.56
882.60	220.29
882.80	268.71
883.00	222.71
883.20	280.81
883.40	229.98
883.60	275.97
883.80	334.07
884.00	319.55
884.20	203.35
884.40	174.30
884.60	108.94
884.80	91.990
885.00	450.27
885.20	329.23
885.40	171.88
885.60	348.59
885.80	290.50
886.00	130.72
886.20	229.98
886.40	377.64
886.60	455.11
886.80	409.11
887.00	384.91
887.20	183.98
887.40	314.70
887.60	256.60
887.80	343.75
888.00	259.03
888.20	237.24
888.40	275.97
888.60	84.728
888.80	77.466
889.00	305.02
889.20	256.60
889.40	106.52
889.60	445.43
889.80	501.11
890.00	174.30
890.20	121.04
890.40	48.416
890.60	191.24
890.80	246.92
891.00	275.97
891.20	275.97
891.40	179.14
891.60	341.33
891.80	145.25
892.00	145.25
892.20	513.21
892.40	220.29
892.60	87.149
892.80	271.13
893.00	312.28
893.20	532.58
893.40	229.98
893.60	614.88
893.80	530.15
894.00	355.86
894.20	179.14
894.40	137.99
894.60	305.02
894.80	58.099
895.00	380.07
895.20	203.35
895.40	360.70
895.60	397.01
895.80	193.66
896.00	348.59
896.20	476.90
896.40	585.83
896.60	380.07
896.80	384.91
897.00	445.43
897.20	31.470
897.40	275.97
897.60	246.92
897.80	319.55
898.00	404.27
898.20	312.28
898.40	121.04
898.60	227.56
898.80	493.84
899.00	203.35
899.20	501.11
899.40	641.51
899.60	472.06
899.80	522.89
900.00	222.71
